<TAB Delimited>
<File Title>
t_s031_SITO_e-b_2000A.oli
<Date Time>
16.11.2021 16:01:28
<Type>
Total Transmittance
<Designation>
=
<Calibration File>
No Cal File Used
<Unit Time>
Unit Time Used
<CCD Type>
7719
<Grating Type>
7983 Vis/IR
<Flash Version>
1.60
<Slit Size>
100u
<Reading Coefficients>
A: -4.974e-009
B: 1.868e-005
C: 7.075e-001
D: 3.756e+002
<Integration Time>
2.732sec
<CCD Rows>
Min Row: 4
Max Row: 125
<Number Of Scans Averaged>
1
<Voltage>
0.000000
<Current>
0.000000
<Data>
380.0000	8.52812e-001
381.0000	8.11352e-001
382.0000	7.85335e-001
383.0000	8.21428e-001
384.0000	8.52993e-001
385.0000	8.39634e-001
386.0000	8.09714e-001
387.0000	7.77236e-001
388.0000	7.88826e-001
389.0000	8.38228e-001
390.0000	8.31997e-001
391.0000	7.90235e-001
392.0000	8.26631e-001
393.0000	8.09371e-001
394.0000	8.09497e-001
395.0000	7.81224e-001
396.0000	8.37239e-001
397.0000	8.10560e-001
398.0000	8.04125e-001
399.0000	8.39482e-001
400.0000	8.04655e-001
401.0000	8.21426e-001
402.0000	7.90972e-001
403.0000	7.86316e-001
404.0000	8.39947e-001
405.0000	8.20412e-001
406.0000	7.62409e-001
407.0000	8.45519e-001
408.0000	8.10850e-001
409.0000	8.73657e-001
410.0000	8.31798e-001
411.0000	8.53513e-001
412.0000	8.18062e-001
413.0000	8.64609e-001
414.0000	8.36507e-001
415.0000	8.43180e-001
416.0000	8.56226e-001
417.0000	8.48080e-001
418.0000	8.96529e-001
419.0000	8.38137e-001
420.0000	8.36050e-001
421.0000	8.36890e-001
422.0000	8.49526e-001
423.0000	8.59733e-001
424.0000	8.46758e-001
425.0000	8.38208e-001
426.0000	8.62300e-001
427.0000	8.64641e-001
428.0000	8.53934e-001
429.0000	8.48145e-001
430.0000	8.47710e-001
431.0000	8.75782e-001
432.0000	8.48525e-001
433.0000	8.58977e-001
434.0000	8.43293e-001
435.0000	8.81994e-001
436.0000	8.36929e-001
437.0000	8.65853e-001
438.0000	8.62532e-001
439.0000	8.69589e-001
440.0000	8.74553e-001
441.0000	8.84100e-001
442.0000	8.63185e-001
443.0000	8.76490e-001
444.0000	8.70055e-001
445.0000	8.79206e-001
446.0000	8.45402e-001
447.0000	8.89410e-001
448.0000	8.70194e-001
449.0000	8.58247e-001
450.0000	8.66828e-001
451.0000	8.61981e-001
452.0000	8.55410e-001
453.0000	8.86231e-001
454.0000	8.76737e-001
455.0000	8.93906e-001
456.0000	8.82040e-001
457.0000	8.81213e-001
458.0000	8.77399e-001
459.0000	8.67240e-001
460.0000	8.80594e-001
461.0000	8.83135e-001
462.0000	8.83063e-001
463.0000	8.78318e-001
464.0000	8.83972e-001
465.0000	8.89085e-001
466.0000	8.78746e-001
467.0000	8.75771e-001
468.0000	8.86581e-001
469.0000	8.84147e-001
470.0000	8.86567e-001
471.0000	8.93516e-001
472.0000	8.89231e-001
473.0000	8.91939e-001
474.0000	8.65734e-001
475.0000	8.81326e-001
476.0000	8.83185e-001
477.0000	8.85450e-001
478.0000	8.89320e-001
479.0000	8.83370e-001
480.0000	8.79771e-001
481.0000	9.01513e-001
482.0000	8.86761e-001
483.0000	8.92638e-001
484.0000	8.92823e-001
485.0000	8.85114e-001
486.0000	8.86555e-001
487.0000	8.89443e-001
488.0000	8.88388e-001
489.0000	8.93225e-001
490.0000	8.89343e-001
491.0000	8.84369e-001
492.0000	8.91144e-001
493.0000	8.89596e-001
494.0000	8.85575e-001
495.0000	8.96275e-001
496.0000	8.90117e-001
497.0000	8.89477e-001
498.0000	9.04706e-001
499.0000	8.95024e-001
500.0000	8.92548e-001
501.0000	8.94115e-001
502.0000	8.94365e-001
503.0000	8.92024e-001
504.0000	8.93913e-001
505.0000	8.95288e-001
506.0000	8.90168e-001
507.0000	8.96566e-001
508.0000	8.90076e-001
509.0000	8.94067e-001
510.0000	8.92847e-001
511.0000	8.93006e-001
512.0000	9.02390e-001
513.0000	8.99665e-001
514.0000	8.97828e-001
515.0000	8.96987e-001
516.0000	8.94897e-001
517.0000	8.98412e-001
518.0000	8.91879e-001
519.0000	8.97429e-001
520.0000	8.90634e-001
521.0000	9.02016e-001
522.0000	9.01225e-001
523.0000	8.95574e-001
524.0000	9.01388e-001
525.0000	8.92068e-001
526.0000	8.98316e-001
527.0000	9.02406e-001
528.0000	8.98868e-001
529.0000	8.97903e-001
530.0000	8.91082e-001
531.0000	9.07394e-001
532.0000	9.04008e-001
533.0000	9.00316e-001
534.0000	9.00195e-001
535.0000	8.94009e-001
536.0000	8.99089e-001
537.0000	9.02003e-001
538.0000	9.04653e-001
539.0000	8.97032e-001
540.0000	9.05467e-001
541.0000	8.98168e-001
542.0000	9.02916e-001
543.0000	9.04937e-001
544.0000	9.00766e-001
545.0000	9.03386e-001
546.0000	8.98796e-001
547.0000	9.03863e-001
548.0000	9.03492e-001
549.0000	9.09578e-001
550.0000	8.96818e-001
551.0000	9.06105e-001
552.0000	8.97607e-001
553.0000	9.05066e-001
554.0000	9.02974e-001
555.0000	9.06927e-001
556.0000	9.05600e-001
557.0000	9.05602e-001
558.0000	9.01463e-001
559.0000	9.08147e-001
560.0000	9.05223e-001
561.0000	9.05928e-001
562.0000	9.14570e-001
563.0000	9.00569e-001
564.0000	9.00945e-001
565.0000	9.02326e-001
566.0000	9.04176e-001
567.0000	9.03925e-001
568.0000	9.07641e-001
569.0000	9.10123e-001
570.0000	9.05482e-001
571.0000	9.08532e-001
572.0000	9.08892e-001
573.0000	9.09159e-001
574.0000	9.06882e-001
575.0000	9.07743e-001
576.0000	9.07426e-001
577.0000	9.04615e-001
578.0000	9.11239e-001
579.0000	9.02052e-001
580.0000	9.10716e-001
581.0000	9.04249e-001
582.0000	9.09591e-001
583.0000	9.07236e-001
584.0000	9.13013e-001
585.0000	9.09282e-001
586.0000	9.06787e-001
587.0000	9.11283e-001
588.0000	9.07866e-001
589.0000	9.07800e-001
590.0000	9.08200e-001
591.0000	9.12343e-001
592.0000	9.12954e-001
593.0000	9.10876e-001
594.0000	9.12395e-001
595.0000	9.15131e-001
596.0000	9.07600e-001
597.0000	9.12513e-001
598.0000	9.06344e-001
599.0000	9.08849e-001
600.0000	9.14883e-001
601.0000	9.14089e-001
602.0000	9.11772e-001
603.0000	9.13934e-001
604.0000	9.16464e-001
605.0000	9.08545e-001
606.0000	9.13515e-001
607.0000	9.10569e-001
608.0000	9.12515e-001
609.0000	9.14455e-001
610.0000	9.11252e-001
611.0000	9.11515e-001
612.0000	9.11721e-001
613.0000	9.14378e-001
614.0000	9.10305e-001
615.0000	9.16020e-001
616.0000	9.11907e-001
617.0000	9.14680e-001
618.0000	9.14585e-001
619.0000	9.17537e-001
620.0000	9.10092e-001
621.0000	9.13837e-001
622.0000	9.16419e-001
623.0000	9.13582e-001
624.0000	9.14345e-001
625.0000	9.20582e-001
626.0000	9.16702e-001
627.0000	9.16242e-001
628.0000	9.17853e-001
629.0000	9.16205e-001
630.0000	9.17894e-001
631.0000	9.19646e-001
632.0000	9.16303e-001
633.0000	9.17028e-001
634.0000	9.15940e-001
635.0000	9.18512e-001
636.0000	9.17514e-001
637.0000	9.15283e-001
638.0000	9.21994e-001
639.0000	9.14948e-001
640.0000	9.20011e-001
641.0000	9.22009e-001
642.0000	9.21638e-001
643.0000	9.11036e-001
644.0000	9.16049e-001
645.0000	9.19763e-001
646.0000	9.18047e-001
647.0000	9.21603e-001
648.0000	9.22156e-001
649.0000	9.15659e-001
650.0000	9.17244e-001
651.0000	9.19882e-001
652.0000	9.17392e-001
653.0000	9.19905e-001
654.0000	9.12968e-001
655.0000	9.19091e-001
656.0000	9.17780e-001
657.0000	9.21195e-001
658.0000	9.20852e-001
659.0000	9.19711e-001
660.0000	9.19631e-001
661.0000	9.18089e-001
662.0000	9.19836e-001
663.0000	9.22606e-001
664.0000	9.17708e-001
665.0000	9.23623e-001
666.0000	9.22305e-001
667.0000	9.21924e-001
668.0000	9.24442e-001
669.0000	9.19304e-001
670.0000	9.20588e-001
671.0000	9.21356e-001
672.0000	9.22282e-001
673.0000	9.21092e-001
674.0000	9.24583e-001
675.0000	9.24041e-001
676.0000	9.22836e-001
677.0000	9.22438e-001
678.0000	9.17162e-001
679.0000	9.16415e-001
680.0000	9.20031e-001
681.0000	9.20645e-001
682.0000	9.20519e-001
683.0000	9.20201e-001
684.0000	9.24313e-001
685.0000	9.19910e-001
686.0000	9.23129e-001
687.0000	9.22285e-001
688.0000	9.20492e-001
689.0000	9.23540e-001
690.0000	9.20648e-001
691.0000	9.23631e-001
692.0000	9.22604e-001
693.0000	9.22542e-001
694.0000	9.22287e-001
695.0000	9.19130e-001
696.0000	9.19192e-001
697.0000	9.23273e-001
698.0000	9.19429e-001
699.0000	9.24915e-001
700.0000	9.23346e-001
701.0000	9.22967e-001
702.0000	9.22028e-001
703.0000	9.20245e-001
704.0000	9.22692e-001
705.0000	9.19833e-001
706.0000	9.22980e-001
707.0000	9.25065e-001
708.0000	9.21999e-001
709.0000	9.21509e-001
710.0000	9.20594e-001
711.0000	9.24208e-001
712.0000	9.24213e-001
713.0000	9.20322e-001
714.0000	9.17254e-001
715.0000	9.18814e-001
716.0000	9.21983e-001
717.0000	9.23340e-001
718.0000	9.21170e-001
719.0000	9.23019e-001
720.0000	9.22408e-001
721.0000	9.23490e-001
722.0000	9.25318e-001
723.0000	9.21643e-001
724.0000	9.22185e-001
725.0000	9.22684e-001
726.0000	9.20536e-001
727.0000	9.20884e-001
728.0000	9.23589e-001
729.0000	9.23029e-001
730.0000	9.22167e-001
731.0000	9.20153e-001
732.0000	9.22300e-001
733.0000	9.21196e-001
734.0000	9.23108e-001
735.0000	9.19824e-001
736.0000	9.20997e-001
737.0000	9.22528e-001
738.0000	9.25757e-001
739.0000	9.20991e-001
740.0000	9.24816e-001
741.0000	9.21990e-001
742.0000	9.20769e-001
743.0000	9.22673e-001
744.0000	9.23993e-001
745.0000	9.22226e-001
746.0000	9.21794e-001
747.0000	9.24437e-001
748.0000	9.19294e-001
749.0000	9.23692e-001
750.0000	9.21706e-001
751.0000	9.20803e-001
752.0000	9.23234e-001
753.0000	9.20684e-001
754.0000	9.19713e-001
755.0000	9.20039e-001
756.0000	9.23850e-001
757.0000	9.19638e-001
758.0000	9.16910e-001
759.0000	9.21925e-001
760.0000	9.22088e-001
761.0000	9.18959e-001
762.0000	9.19153e-001
763.0000	9.19838e-001
764.0000	9.20387e-001
765.0000	9.20092e-001
766.0000	9.19901e-001
767.0000	9.21993e-001
768.0000	9.19706e-001
769.0000	9.19753e-001
770.0000	9.23597e-001
771.0000	9.18564e-001
772.0000	9.21287e-001
773.0000	9.23824e-001
774.0000	9.17110e-001
775.0000	9.21091e-001
776.0000	9.21684e-001
777.0000	9.23312e-001
778.0000	9.22347e-001
779.0000	9.20378e-001
780.0000	9.21351e-001
781.0000	9.20783e-001
782.0000	9.20735e-001
783.0000	9.18291e-001
784.0000	9.23077e-001
785.0000	9.21783e-001
786.0000	9.22788e-001
787.0000	9.20516e-001
788.0000	9.22392e-001
789.0000	9.20775e-001
790.0000	9.17033e-001
791.0000	9.20249e-001
792.0000	9.19140e-001
793.0000	9.17745e-001
794.0000	9.17288e-001
795.0000	9.18155e-001
796.0000	9.19008e-001
797.0000	9.18933e-001
798.0000	9.19807e-001
799.0000	9.17610e-001
800.0000	9.16430e-001
801.0000	9.17260e-001
802.0000	9.16930e-001
803.0000	9.14935e-001
804.0000	9.18507e-001
805.0000	9.22188e-001
806.0000	9.19466e-001
807.0000	9.20711e-001
808.0000	9.15870e-001
809.0000	9.20212e-001
810.0000	9.20751e-001
811.0000	9.19438e-001
812.0000	9.18709e-001
813.0000	9.16204e-001
814.0000	9.20389e-001
815.0000	9.15635e-001
816.0000	9.15121e-001
817.0000	9.23099e-001
818.0000	9.16738e-001
819.0000	9.20057e-001
820.0000	9.17650e-001
821.0000	9.18096e-001
822.0000	9.17534e-001
823.0000	9.18406e-001
824.0000	9.18744e-001
825.0000	9.13722e-001
826.0000	9.18429e-001
827.0000	9.14422e-001
828.0000	9.14642e-001
829.0000	9.17258e-001
830.0000	9.16792e-001
831.0000	9.19298e-001
832.0000	9.18368e-001
833.0000	9.19493e-001
834.0000	9.15518e-001
835.0000	9.16109e-001
836.0000	9.14845e-001
837.0000	9.19184e-001
838.0000	9.13424e-001
839.0000	9.16894e-001
840.0000	9.12213e-001
841.0000	9.13646e-001
842.0000	9.11895e-001
843.0000	9.14216e-001
844.0000	9.15937e-001
845.0000	9.14607e-001
846.0000	9.15492e-001
847.0000	9.15641e-001
848.0000	9.12247e-001
849.0000	9.14078e-001
850.0000	9.15000e-001
851.0000	9.16620e-001
852.0000	9.12803e-001
853.0000	9.15165e-001
854.0000	9.12340e-001
855.0000	9.17814e-001
856.0000	9.13268e-001
857.0000	9.12536e-001
858.0000	9.14104e-001
859.0000	9.15683e-001
860.0000	9.13754e-001
861.0000	9.17471e-001
862.0000	9.11022e-001
863.0000	9.13993e-001
864.0000	9.16931e-001
865.0000	9.15231e-001
866.0000	9.13083e-001
867.0000	9.10233e-001
868.0000	9.11783e-001
869.0000	9.13408e-001
870.0000	9.14146e-001
871.0000	9.12890e-001
872.0000	9.09332e-001
873.0000	9.13842e-001
874.0000	9.13235e-001
875.0000	9.15857e-001
876.0000	9.13553e-001
877.0000	9.13381e-001
878.0000	9.13001e-001
879.0000	9.12544e-001
880.0000	9.12608e-001
881.0000	9.15608e-001
882.0000	9.09540e-001
883.0000	9.10826e-001
884.0000	9.12342e-001
885.0000	9.13516e-001
886.0000	9.09457e-001
887.0000	9.11660e-001
888.0000	9.12318e-001
889.0000	9.12997e-001
890.0000	9.08968e-001
891.0000	9.10970e-001
892.0000	9.12072e-001
893.0000	9.12059e-001
894.0000	9.09467e-001
895.0000	9.13587e-001
896.0000	9.10505e-001
897.0000	9.09010e-001
898.0000	9.11006e-001
899.0000	9.10836e-001
900.0000	9.09453e-001
901.0000	9.13814e-001
902.0000	9.10047e-001
903.0000	9.10111e-001
904.0000	9.11109e-001
905.0000	9.11326e-001
906.0000	9.10540e-001
907.0000	9.09973e-001
908.0000	9.05632e-001
909.0000	9.11300e-001
910.0000	9.12085e-001
911.0000	9.10668e-001
912.0000	9.10224e-001
913.0000	9.06552e-001
914.0000	9.09648e-001
915.0000	9.12036e-001
916.0000	9.09446e-001
917.0000	9.10547e-001
918.0000	9.09528e-001
919.0000	9.11555e-001
920.0000	9.10279e-001
921.0000	9.08659e-001
922.0000	9.07734e-001
923.0000	9.07184e-001
924.0000	9.04152e-001
925.0000	9.04172e-001
926.0000	9.08695e-001
927.0000	9.08800e-001
928.0000	9.08110e-001
929.0000	9.08968e-001
930.0000	9.07051e-001
931.0000	9.04762e-001
932.0000	9.10110e-001
933.0000	9.06032e-001
934.0000	9.05239e-001
935.0000	9.06111e-001
936.0000	9.10824e-001
937.0000	9.10138e-001
938.0000	9.05142e-001
939.0000	9.09463e-001
940.0000	9.09607e-001
941.0000	9.05650e-001
942.0000	9.04557e-001
943.0000	9.04195e-001
944.0000	9.06783e-001
945.0000	9.06385e-001
946.0000	9.08749e-001
947.0000	9.09697e-001
948.0000	9.07771e-001
949.0000	9.06029e-001
950.0000	9.06203e-001
951.0000	9.05035e-001
952.0000	9.03294e-001
953.0000	9.03557e-001
954.0000	9.06383e-001
955.0000	9.07001e-001
956.0000	9.04695e-001
957.0000	9.07837e-001
958.0000	9.09494e-001
959.0000	9.05064e-001
960.0000	9.06565e-001
961.0000	9.00003e-001
962.0000	9.04116e-001
963.0000	9.03945e-001
964.0000	8.98719e-001
965.0000	9.01728e-001
966.0000	9.07475e-001
967.0000	8.98334e-001
968.0000	9.04251e-001
969.0000	9.07642e-001
970.0000	8.99205e-001
971.0000	9.04292e-001
972.0000	9.02244e-001
973.0000	8.99281e-001
974.0000	9.00262e-001
975.0000	9.07158e-001
976.0000	9.04053e-001
977.0000	9.00667e-001
978.0000	8.98165e-001
979.0000	9.03635e-001
980.0000	8.98081e-001
981.0000	9.08119e-001
982.0000	9.04786e-001
983.0000	9.06304e-001
984.0000	9.04963e-001
985.0000	8.99802e-001
986.0000	9.03382e-001
987.0000	9.01774e-001
988.0000	9.04351e-001
989.0000	9.03682e-001
990.0000	9.03086e-001
991.0000	8.95338e-001
992.0000	9.00143e-001
993.0000	9.01452e-001
994.0000	9.00301e-001
995.0000	8.99329e-001
996.0000	9.00662e-001
997.0000	9.06855e-001
998.0000	9.04723e-001
999.0000	8.98656e-001
1000.0000	8.98542e-001
1001.0000	9.00373e-001
1002.0000	9.00431e-001
1003.0000	9.01107e-001
1004.0000	9.01203e-001
1005.0000	9.01229e-001
1006.0000	8.97787e-001
1007.0000	8.99944e-001
1008.0000	9.01047e-001
1009.0000	9.00571e-001
1010.0000	8.99928e-001
1011.0000	8.94777e-001
1012.0000	9.00644e-001
1013.0000	9.06704e-001
1014.0000	8.99679e-001
1015.0000	8.99560e-001
1016.0000	9.00499e-001
1017.0000	8.95241e-001
1018.0000	8.99273e-001
1019.0000	8.98782e-001
1020.0000	8.96309e-001
1021.0000	9.06209e-001
1022.0000	8.98573e-001
1023.0000	8.98856e-001
1024.0000	9.01279e-001
1025.0000	8.93699e-001
1026.0000	9.06235e-001
1027.0000	8.96579e-001
1028.0000	9.00062e-001
1029.0000	8.91859e-001
1030.0000	8.93955e-001
1031.0000	8.94691e-001
1032.0000	8.93165e-001
1033.0000	8.91714e-001
1034.0000	8.93929e-001
1035.0000	9.00533e-001
1036.0000	8.91333e-001
1037.0000	8.99904e-001
1038.0000	9.00852e-001
1039.0000	8.96446e-001
1040.0000	8.87561e-001
1041.0000	8.99354e-001
1042.0000	8.97173e-001
1043.0000	8.92655e-001
1044.0000	8.98578e-001
1045.0000	9.01873e-001
1046.0000	9.00069e-001
1047.0000	8.92667e-001
1048.0000	8.88873e-001
1049.0000	8.90235e-001
1050.0000	8.96478e-001
1051.0000	8.92383e-001
1052.0000	8.99894e-001
1053.0000	8.89794e-001
1054.0000	8.89064e-001
1055.0000	9.01473e-001
1056.0000	9.01072e-001
1057.0000	8.93189e-001
1058.0000	9.01151e-001
1059.0000	8.96192e-001
1060.0000	8.97662e-001
1061.0000	8.87081e-001
1062.0000	8.87932e-001
1063.0000	9.00466e-001
1064.0000	8.88788e-001
1065.0000	8.98658e-001
1066.0000	8.91416e-001
1067.0000	8.96037e-001
1068.0000	8.87070e-001
1069.0000	8.72319e-001
1070.0000	8.89383e-001
1071.0000	8.99901e-001
1072.0000	8.86810e-001
1073.0000	8.89622e-001
1074.0000	8.90413e-001
1075.0000	9.07606e-001
1076.0000	8.99181e-001
1077.0000	8.86231e-001
1078.0000	8.99584e-001
1079.0000	9.05752e-001
1080.0000	8.83012e-001
1081.0000	8.95396e-001
1082.0000	8.86619e-001
1083.0000	8.89292e-001
1084.0000	8.94271e-001
1085.0000	8.99140e-001
1086.0000	8.80595e-001
1087.0000	8.77538e-001
1088.0000	8.90263e-001
1089.0000	8.86724e-001
1090.0000	8.88791e-001
1091.0000	8.86851e-001
1092.0000	8.92720e-001
1093.0000	8.89990e-001
1094.0000	9.10663e-001
1095.0000	8.92460e-001
1096.0000	8.98196e-001
1097.0000	8.72987e-001
1098.0000	8.92354e-001
1099.0000	8.99182e-001
1100.0000	8.73844e-001
<EndData>

<NDFilter>
<No Filter>
<Version>
3.3
<Lamp Source1>
Internal
<Pulse Width>
0.000000
<Chiller>
0.000000
