<TAB Delimited>
<File Title>
t_s032_SITO_e-b_2000A.oli
<Date Time>
16.11.2021 16:04:15
<Type>
Total Transmittance
<Designation>
=
<Calibration File>
No Cal File Used
<Unit Time>
Unit Time Used
<CCD Type>
7719
<Grating Type>
7983 Vis/IR
<Flash Version>
1.60
<Slit Size>
100u
<Reading Coefficients>
A: -4.974e-009
B: 1.868e-005
C: 7.075e-001
D: 3.756e+002
<Integration Time>
2.693sec
<CCD Rows>
Min Row: 4
Max Row: 125
<Number Of Scans Averaged>
1
<Voltage>
0.000000
<Current>
0.000000
<Data>
380.0000	8.17991e-001
381.0000	8.57794e-001
382.0000	7.15234e-001
383.0000	8.31327e-001
384.0000	8.08129e-001
385.0000	9.78055e-001
386.0000	8.09201e-001
387.0000	7.35779e-001
388.0000	8.24126e-001
389.0000	8.26663e-001
390.0000	8.80870e-001
391.0000	7.18947e-001
392.0000	7.67685e-001
393.0000	7.38548e-001
394.0000	7.73062e-001
395.0000	7.83558e-001
396.0000	8.79266e-001
397.0000	8.98301e-001
398.0000	8.48537e-001
399.0000	8.33525e-001
400.0000	8.20165e-001
401.0000	7.87847e-001
402.0000	8.03454e-001
403.0000	8.25033e-001
404.0000	7.91838e-001
405.0000	7.84803e-001
406.0000	7.84696e-001
407.0000	8.57588e-001
408.0000	8.51577e-001
409.0000	8.50885e-001
410.0000	8.16506e-001
411.0000	8.53301e-001
412.0000	8.42007e-001
413.0000	8.32196e-001
414.0000	8.53557e-001
415.0000	8.27227e-001
416.0000	8.44834e-001
417.0000	8.41845e-001
418.0000	8.85581e-001
419.0000	8.45883e-001
420.0000	8.33779e-001
421.0000	8.43899e-001
422.0000	8.52095e-001
423.0000	8.48445e-001
424.0000	8.45751e-001
425.0000	7.53725e-001
426.0000	8.05725e-001
427.0000	8.46947e-001
428.0000	8.37579e-001
429.0000	8.50319e-001
430.0000	8.51443e-001
431.0000	8.55488e-001
432.0000	8.56611e-001
433.0000	8.51664e-001
434.0000	8.35008e-001
435.0000	8.68538e-001
436.0000	8.67696e-001
437.0000	8.60192e-001
438.0000	8.42838e-001
439.0000	8.76986e-001
440.0000	8.88006e-001
441.0000	8.69866e-001
442.0000	8.71877e-001
443.0000	8.71357e-001
444.0000	8.75569e-001
445.0000	8.58083e-001
446.0000	8.50047e-001
447.0000	8.57770e-001
448.0000	8.63878e-001
449.0000	8.53424e-001
450.0000	8.54141e-001
451.0000	8.60851e-001
452.0000	8.72325e-001
453.0000	8.74110e-001
454.0000	8.74730e-001
455.0000	8.83087e-001
456.0000	8.75771e-001
457.0000	8.80806e-001
458.0000	8.48358e-001
459.0000	8.79397e-001
460.0000	8.85321e-001
461.0000	8.69616e-001
462.0000	8.69250e-001
463.0000	8.73714e-001
464.0000	8.71244e-001
465.0000	8.85683e-001
466.0000	8.63947e-001
467.0000	8.82430e-001
468.0000	8.77515e-001
469.0000	8.76054e-001
470.0000	8.82372e-001
471.0000	8.91685e-001
472.0000	8.68875e-001
473.0000	8.76937e-001
474.0000	8.62197e-001
475.0000	8.84429e-001
476.0000	8.86300e-001
477.0000	8.77120e-001
478.0000	8.86651e-001
479.0000	8.80239e-001
480.0000	8.67009e-001
481.0000	8.80804e-001
482.0000	8.85029e-001
483.0000	8.82785e-001
484.0000	8.93805e-001
485.0000	8.72746e-001
486.0000	8.80864e-001
487.0000	8.75397e-001
488.0000	9.01189e-001
489.0000	8.79440e-001
490.0000	8.82544e-001
491.0000	8.86962e-001
492.0000	8.85632e-001
493.0000	8.96624e-001
494.0000	8.85755e-001
495.0000	8.90572e-001
496.0000	8.81301e-001
497.0000	8.83280e-001
498.0000	8.98766e-001
499.0000	8.88228e-001
500.0000	8.96874e-001
501.0000	8.92724e-001
502.0000	8.89565e-001
503.0000	8.89994e-001
504.0000	8.90936e-001
505.0000	8.94512e-001
506.0000	8.87314e-001
507.0000	8.89359e-001
508.0000	8.95704e-001
509.0000	8.94271e-001
510.0000	8.96911e-001
511.0000	8.87233e-001
512.0000	8.95928e-001
513.0000	8.91137e-001
514.0000	8.95665e-001
515.0000	8.97947e-001
516.0000	8.93302e-001
517.0000	8.96859e-001
518.0000	8.88221e-001
519.0000	8.87398e-001
520.0000	8.94829e-001
521.0000	8.99623e-001
522.0000	8.89356e-001
523.0000	8.90040e-001
524.0000	8.98784e-001
525.0000	8.86394e-001
526.0000	8.94729e-001
527.0000	9.02864e-001
528.0000	8.95591e-001
529.0000	8.97473e-001
530.0000	8.97577e-001
531.0000	9.01204e-001
532.0000	8.96054e-001
533.0000	8.97016e-001
534.0000	8.97058e-001
535.0000	8.97009e-001
536.0000	8.96916e-001
537.0000	9.02581e-001
538.0000	9.04150e-001
539.0000	8.99805e-001
540.0000	8.97903e-001
541.0000	8.93821e-001
542.0000	8.99903e-001
543.0000	8.96682e-001
544.0000	8.98655e-001
545.0000	8.99092e-001
546.0000	8.98951e-001
547.0000	8.99907e-001
548.0000	9.00072e-001
549.0000	9.03705e-001
550.0000	8.94600e-001
551.0000	8.98480e-001
552.0000	9.01169e-001
553.0000	8.98729e-001
554.0000	9.00777e-001
555.0000	9.01962e-001
556.0000	9.03651e-001
557.0000	9.02549e-001
558.0000	9.03158e-001
559.0000	9.01922e-001
560.0000	9.06750e-001
561.0000	9.05475e-001
562.0000	9.10188e-001
563.0000	8.99838e-001
564.0000	9.00740e-001
565.0000	9.04851e-001
566.0000	9.02319e-001
567.0000	9.01991e-001
568.0000	9.04758e-001
569.0000	9.08529e-001
570.0000	9.04047e-001
571.0000	9.09802e-001
572.0000	9.07457e-001
573.0000	9.05804e-001
574.0000	9.06015e-001
575.0000	9.12263e-001
576.0000	9.00126e-001
577.0000	9.08651e-001
578.0000	9.05058e-001
579.0000	9.02073e-001
580.0000	9.06298e-001
581.0000	9.04937e-001
582.0000	9.08342e-001
583.0000	9.07219e-001
584.0000	9.08742e-001
585.0000	9.13864e-001
586.0000	9.05717e-001
587.0000	9.07956e-001
588.0000	9.06666e-001
589.0000	9.07477e-001
590.0000	9.07878e-001
591.0000	9.08066e-001
592.0000	9.06975e-001
593.0000	9.07142e-001
594.0000	9.05245e-001
595.0000	9.15118e-001
596.0000	9.09594e-001
597.0000	9.13441e-001
598.0000	9.08518e-001
599.0000	9.05633e-001
600.0000	9.12121e-001
601.0000	9.09274e-001
602.0000	9.10114e-001
603.0000	9.11315e-001
604.0000	9.14727e-001
605.0000	9.11816e-001
606.0000	9.11235e-001
607.0000	9.07528e-001
608.0000	9.11677e-001
609.0000	9.10313e-001
610.0000	9.12196e-001
611.0000	9.10257e-001
612.0000	9.10614e-001
613.0000	9.15914e-001
614.0000	9.10510e-001
615.0000	9.13481e-001
616.0000	9.06461e-001
617.0000	9.12727e-001
618.0000	9.12639e-001
619.0000	9.15596e-001
620.0000	9.13934e-001
621.0000	9.16563e-001
622.0000	9.13209e-001
623.0000	9.13286e-001
624.0000	9.10260e-001
625.0000	9.15355e-001
626.0000	9.14912e-001
627.0000	9.14034e-001
628.0000	9.14337e-001
629.0000	9.13530e-001
630.0000	9.18272e-001
631.0000	9.16860e-001
632.0000	9.13966e-001
633.0000	9.14297e-001
634.0000	9.14034e-001
635.0000	9.16295e-001
636.0000	9.12098e-001
637.0000	9.15059e-001
638.0000	9.20832e-001
639.0000	9.09980e-001
640.0000	9.16758e-001
641.0000	9.19134e-001
642.0000	9.17829e-001
643.0000	9.15922e-001
644.0000	9.20213e-001
645.0000	9.17886e-001
646.0000	9.17994e-001
647.0000	9.20669e-001
648.0000	9.15094e-001
649.0000	9.11375e-001
650.0000	9.15550e-001
651.0000	9.19136e-001
652.0000	9.15323e-001
653.0000	9.20790e-001
654.0000	9.14867e-001
655.0000	9.13906e-001
656.0000	9.13970e-001
657.0000	9.14539e-001
658.0000	9.17764e-001
659.0000	9.18365e-001
660.0000	9.14476e-001
661.0000	9.12323e-001
662.0000	9.18541e-001
663.0000	9.18595e-001
664.0000	9.18988e-001
665.0000	9.20594e-001
666.0000	9.17590e-001
667.0000	9.20490e-001
668.0000	9.21213e-001
669.0000	9.17288e-001
670.0000	9.18105e-001
671.0000	9.20967e-001
672.0000	9.18814e-001
673.0000	9.16336e-001
674.0000	9.17851e-001
675.0000	9.22521e-001
676.0000	9.21418e-001
677.0000	9.19549e-001
678.0000	9.16067e-001
679.0000	9.19720e-001
680.0000	9.20271e-001
681.0000	9.17866e-001
682.0000	9.20454e-001
683.0000	9.14898e-001
684.0000	9.19857e-001
685.0000	9.21105e-001
686.0000	9.16187e-001
687.0000	9.20278e-001
688.0000	9.20121e-001
689.0000	9.22486e-001
690.0000	9.18294e-001
691.0000	9.22164e-001
692.0000	9.21420e-001
693.0000	9.17547e-001
694.0000	9.19055e-001
695.0000	9.17132e-001
696.0000	9.21388e-001
697.0000	9.18805e-001
698.0000	9.18853e-001
699.0000	9.20085e-001
700.0000	9.20382e-001
701.0000	9.21261e-001
702.0000	9.20477e-001
703.0000	9.20607e-001
704.0000	9.20198e-001
705.0000	9.19505e-001
706.0000	9.21787e-001
707.0000	9.19963e-001
708.0000	9.21307e-001
709.0000	9.17000e-001
710.0000	9.17085e-001
711.0000	9.20817e-001
712.0000	9.19865e-001
713.0000	9.21101e-001
714.0000	9.18080e-001
715.0000	9.18008e-001
716.0000	9.19220e-001
717.0000	9.22312e-001
718.0000	9.20446e-001
719.0000	9.20791e-001
720.0000	9.20476e-001
721.0000	9.18709e-001
722.0000	9.22817e-001
723.0000	9.22310e-001
724.0000	9.20219e-001
725.0000	9.21216e-001
726.0000	9.17888e-001
727.0000	9.20134e-001
728.0000	9.19023e-001
729.0000	9.23900e-001
730.0000	9.20094e-001
731.0000	9.17712e-001
732.0000	9.20720e-001
733.0000	9.18073e-001
734.0000	9.17086e-001
735.0000	9.19746e-001
736.0000	9.19579e-001
737.0000	9.18516e-001
738.0000	9.21399e-001
739.0000	9.16209e-001
740.0000	9.21709e-001
741.0000	9.21898e-001
742.0000	9.20424e-001
743.0000	9.18166e-001
744.0000	9.22373e-001
745.0000	9.18073e-001
746.0000	9.20784e-001
747.0000	9.19024e-001
748.0000	9.22855e-001
749.0000	9.22343e-001
750.0000	9.22745e-001
751.0000	9.18964e-001
752.0000	9.20579e-001
753.0000	9.20506e-001
754.0000	9.20572e-001
755.0000	9.17977e-001
756.0000	9.22098e-001
757.0000	9.19178e-001
758.0000	9.17124e-001
759.0000	9.20657e-001
760.0000	9.16304e-001
761.0000	9.18964e-001
762.0000	9.14900e-001
763.0000	9.14403e-001
764.0000	9.20635e-001
765.0000	9.19106e-001
766.0000	9.18776e-001
767.0000	9.19996e-001
768.0000	9.16793e-001
769.0000	9.17209e-001
770.0000	9.19746e-001
771.0000	9.17249e-001
772.0000	9.15942e-001
773.0000	9.21827e-001
774.0000	9.14406e-001
775.0000	9.18806e-001
776.0000	9.18126e-001
777.0000	9.20542e-001
778.0000	9.17245e-001
779.0000	9.16817e-001
780.0000	9.18290e-001
781.0000	9.18902e-001
782.0000	9.16406e-001
783.0000	9.17125e-001
784.0000	9.16649e-001
785.0000	9.18696e-001
786.0000	9.18993e-001
787.0000	9.16337e-001
788.0000	9.18556e-001
789.0000	9.17478e-001
790.0000	9.17076e-001
791.0000	9.12995e-001
792.0000	9.16047e-001
793.0000	9.18680e-001
794.0000	9.16566e-001
795.0000	9.17656e-001
796.0000	9.17770e-001
797.0000	9.15255e-001
798.0000	9.17723e-001
799.0000	9.18035e-001
800.0000	9.13149e-001
801.0000	9.14149e-001
802.0000	9.14881e-001
803.0000	9.12569e-001
804.0000	9.16896e-001
805.0000	9.17373e-001
806.0000	9.18404e-001
807.0000	9.16802e-001
808.0000	9.16621e-001
809.0000	9.15926e-001
810.0000	9.14288e-001
811.0000	9.20556e-001
812.0000	9.14448e-001
813.0000	9.15809e-001
814.0000	9.20079e-001
815.0000	9.14322e-001
816.0000	9.14016e-001
817.0000	9.17277e-001
818.0000	9.15595e-001
819.0000	9.17309e-001
820.0000	9.15664e-001
821.0000	9.17258e-001
822.0000	9.13563e-001
823.0000	9.13832e-001
824.0000	9.12739e-001
825.0000	9.12454e-001
826.0000	9.14015e-001
827.0000	9.17497e-001
828.0000	9.12308e-001
829.0000	9.11917e-001
830.0000	9.13804e-001
831.0000	9.16825e-001
832.0000	9.14508e-001
833.0000	9.15393e-001
834.0000	9.12118e-001
835.0000	9.13981e-001
836.0000	9.12654e-001
837.0000	9.20269e-001
838.0000	9.11973e-001
839.0000	9.13671e-001
840.0000	9.13473e-001
841.0000	9.10360e-001
842.0000	9.10305e-001
843.0000	9.13739e-001
844.0000	9.10241e-001
845.0000	9.09530e-001
846.0000	9.14593e-001
847.0000	9.13866e-001
848.0000	9.12843e-001
849.0000	9.13664e-001
850.0000	9.13560e-001
851.0000	9.15284e-001
852.0000	9.10269e-001
853.0000	9.15064e-001
854.0000	9.14172e-001
855.0000	9.11875e-001
856.0000	9.10148e-001
857.0000	9.09710e-001
858.0000	9.11271e-001
859.0000	9.10862e-001
860.0000	9.16031e-001
861.0000	9.15018e-001
862.0000	9.11035e-001
863.0000	9.10356e-001
864.0000	9.10918e-001
865.0000	9.12563e-001
866.0000	9.18240e-001
867.0000	9.10676e-001
868.0000	9.10548e-001
869.0000	9.12689e-001
870.0000	9.10328e-001
871.0000	9.09348e-001
872.0000	9.09914e-001
873.0000	9.12135e-001
874.0000	9.10767e-001
875.0000	9.11807e-001
876.0000	9.09611e-001
877.0000	9.10191e-001
878.0000	9.08310e-001
879.0000	9.12010e-001
880.0000	9.11237e-001
881.0000	9.09022e-001
882.0000	9.08080e-001
883.0000	9.14338e-001
884.0000	9.11586e-001
885.0000	9.11479e-001
886.0000	9.06420e-001
887.0000	9.08618e-001
888.0000	9.08072e-001
889.0000	9.12980e-001
890.0000	9.05773e-001
891.0000	9.09145e-001
892.0000	9.07688e-001
893.0000	9.11004e-001
894.0000	9.07312e-001
895.0000	9.13174e-001
896.0000	9.08710e-001
897.0000	9.06508e-001
898.0000	9.09889e-001
899.0000	9.07852e-001
900.0000	9.04733e-001
901.0000	9.13468e-001
902.0000	9.11068e-001
903.0000	9.08317e-001
904.0000	9.09945e-001
905.0000	9.07841e-001
906.0000	9.06601e-001
907.0000	9.10067e-001
908.0000	9.05728e-001
909.0000	9.09147e-001
910.0000	9.08046e-001
911.0000	9.08573e-001
912.0000	9.05737e-001
913.0000	9.04243e-001
914.0000	9.09443e-001
915.0000	9.06518e-001
916.0000	9.04999e-001
917.0000	9.06670e-001
918.0000	9.07837e-001
919.0000	9.08614e-001
920.0000	9.06237e-001
921.0000	9.08858e-001
922.0000	9.06995e-001
923.0000	9.01446e-001
924.0000	9.04689e-001
925.0000	9.06060e-001
926.0000	9.06381e-001
927.0000	9.05312e-001
928.0000	9.07023e-001
929.0000	9.05521e-001
930.0000	9.08127e-001
931.0000	9.03711e-001
932.0000	9.06140e-001
933.0000	9.02185e-001
934.0000	9.09274e-001
935.0000	9.02432e-001
936.0000	9.08715e-001
937.0000	9.08918e-001
938.0000	9.02817e-001
939.0000	9.05237e-001
940.0000	9.07022e-001
941.0000	9.02784e-001
942.0000	9.04880e-001
943.0000	9.04169e-001
944.0000	9.08306e-001
945.0000	9.06216e-001
946.0000	9.05339e-001
947.0000	9.07769e-001
948.0000	9.08898e-001
949.0000	9.05150e-001
950.0000	9.05115e-001
951.0000	9.00250e-001
952.0000	9.02898e-001
953.0000	9.01998e-001
954.0000	9.04122e-001
955.0000	9.07627e-001
956.0000	9.02840e-001
957.0000	9.01953e-001
958.0000	9.04080e-001
959.0000	9.06371e-001
960.0000	9.01881e-001
961.0000	8.98638e-001
962.0000	8.99486e-001
963.0000	9.03138e-001
964.0000	8.96006e-001
965.0000	9.03624e-001
966.0000	9.04664e-001
967.0000	8.96122e-001
968.0000	9.01622e-001
969.0000	9.03068e-001
970.0000	9.03956e-001
971.0000	9.02921e-001
972.0000	8.97337e-001
973.0000	9.01629e-001
974.0000	8.99866e-001
975.0000	9.02959e-001
976.0000	9.03084e-001
977.0000	8.97565e-001
978.0000	8.95134e-001
979.0000	9.03790e-001
980.0000	8.98825e-001
981.0000	9.03412e-001
982.0000	9.02109e-001
983.0000	9.02900e-001
984.0000	9.04726e-001
985.0000	9.01255e-001
986.0000	9.03855e-001
987.0000	8.95969e-001
988.0000	8.97826e-001
989.0000	9.00027e-001
990.0000	9.00149e-001
991.0000	8.94483e-001
992.0000	8.98256e-001
993.0000	9.00909e-001
994.0000	8.95850e-001
995.0000	8.98024e-001
996.0000	8.99217e-001
997.0000	8.99158e-001
998.0000	8.99521e-001
999.0000	8.95232e-001
1000.0000	8.96216e-001
1001.0000	8.94825e-001
1002.0000	9.00125e-001
1003.0000	9.01694e-001
1004.0000	8.92289e-001
1005.0000	9.02985e-001
1006.0000	8.96624e-001
1007.0000	8.96876e-001
1008.0000	8.96023e-001
1009.0000	8.98077e-001
1010.0000	8.98326e-001
1011.0000	8.93969e-001
1012.0000	9.02580e-001
1013.0000	8.96198e-001
1014.0000	8.96402e-001
1015.0000	8.94820e-001
1016.0000	8.97380e-001
1017.0000	8.98502e-001
1018.0000	9.00723e-001
1019.0000	8.93338e-001
1020.0000	8.97237e-001
1021.0000	8.97401e-001
1022.0000	8.99313e-001
1023.0000	8.96989e-001
1024.0000	8.95456e-001
1025.0000	8.90261e-001
1026.0000	9.02165e-001
1027.0000	8.95284e-001
1028.0000	8.97995e-001
1029.0000	8.88954e-001
1030.0000	8.93772e-001
1031.0000	8.92719e-001
1032.0000	8.90569e-001
1033.0000	8.90361e-001
1034.0000	8.90252e-001
1035.0000	8.91266e-001
1036.0000	8.89397e-001
1037.0000	8.98168e-001
1038.0000	8.95621e-001
1039.0000	8.96755e-001
1040.0000	8.85166e-001
1041.0000	8.95060e-001
1042.0000	8.94137e-001
1043.0000	8.90623e-001
1044.0000	8.97269e-001
1045.0000	8.98454e-001
1046.0000	8.96000e-001
1047.0000	8.95819e-001
1048.0000	8.94768e-001
1049.0000	8.85472e-001
1050.0000	8.91286e-001
1051.0000	8.92612e-001
1052.0000	8.96096e-001
1053.0000	8.91255e-001
1054.0000	8.91839e-001
1055.0000	8.91471e-001
1056.0000	8.99365e-001
1057.0000	8.79440e-001
1058.0000	9.02105e-001
1059.0000	8.96894e-001
1060.0000	8.97383e-001
1061.0000	8.94522e-001
1062.0000	8.90466e-001
1063.0000	8.92928e-001
1064.0000	8.91415e-001
1065.0000	8.95315e-001
1066.0000	8.83653e-001
1067.0000	8.89830e-001
1068.0000	8.84002e-001
1069.0000	8.82337e-001
1070.0000	8.83402e-001
1071.0000	8.95139e-001
1072.0000	8.78249e-001
1073.0000	8.79550e-001
1074.0000	8.87799e-001
1075.0000	8.94763e-001
1076.0000	8.91996e-001
1077.0000	8.86914e-001
1078.0000	8.92498e-001
1079.0000	8.90661e-001
1080.0000	8.76432e-001
1081.0000	8.83088e-001
1082.0000	8.82097e-001
1083.0000	8.79046e-001
1084.0000	8.85921e-001
1085.0000	9.01491e-001
1086.0000	8.83281e-001
1087.0000	8.80971e-001
1088.0000	8.83479e-001
1089.0000	8.86974e-001
1090.0000	8.81297e-001
1091.0000	8.81955e-001
1092.0000	8.81609e-001
1093.0000	8.89633e-001
1094.0000	8.98428e-001
1095.0000	8.85157e-001
1096.0000	8.90731e-001
1097.0000	8.82903e-001
1098.0000	8.92976e-001
1099.0000	8.91955e-001
1100.0000	8.66662e-001
<EndData>

<NDFilter>
<No Filter>
<Version>
3.3
<Lamp Source1>
Internal
<Pulse Width>
0.000000
<Chiller>
0.000000
