<TAB Delimited>
<File Title>
t_s033_SITO_e-b_2000A.oli
<Date Time>
16.11.2021 16:07:25
<Type>
Total Transmittance
<Designation>
=
<Calibration File>
No Cal File Used
<Unit Time>
Unit Time Used
<CCD Type>
7719
<Grating Type>
7983 Vis/IR
<Flash Version>
1.60
<Slit Size>
100u
<Reading Coefficients>
A: -4.974e-009
B: 1.868e-005
C: 7.075e-001
D: 3.756e+002
<Integration Time>
2.719sec
<CCD Rows>
Min Row: 4
Max Row: 125
<Number Of Scans Averaged>
1
<Voltage>
0.000000
<Current>
0.000000
<Data>
380.0000	8.26855e-001
381.0000	8.07564e-001
382.0000	7.21487e-001
383.0000	8.16661e-001
384.0000	8.91375e-001
385.0000	9.00241e-001
386.0000	8.54949e-001
387.0000	7.53658e-001
388.0000	8.43662e-001
389.0000	8.14965e-001
390.0000	8.78886e-001
391.0000	7.56364e-001
392.0000	7.77543e-001
393.0000	8.44145e-001
394.0000	7.82681e-001
395.0000	7.88911e-001
396.0000	9.07060e-001
397.0000	8.44271e-001
398.0000	8.39959e-001
399.0000	9.05540e-001
400.0000	7.91600e-001
401.0000	8.00214e-001
402.0000	8.19637e-001
403.0000	8.23251e-001
404.0000	8.36929e-001
405.0000	8.48660e-001
406.0000	7.63437e-001
407.0000	8.64567e-001
408.0000	8.46150e-001
409.0000	8.63109e-001
410.0000	8.21914e-001
411.0000	8.40152e-001
412.0000	8.34022e-001
413.0000	8.17120e-001
414.0000	8.43867e-001
415.0000	8.29805e-001
416.0000	8.98186e-001
417.0000	8.48787e-001
418.0000	8.62361e-001
419.0000	8.67566e-001
420.0000	8.35622e-001
421.0000	8.48563e-001
422.0000	8.49271e-001
423.0000	8.60775e-001
424.0000	8.54165e-001
425.0000	8.45758e-001
426.0000	8.75375e-001
427.0000	8.78916e-001
428.0000	8.43096e-001
429.0000	8.74390e-001
430.0000	8.59184e-001
431.0000	8.79254e-001
432.0000	8.54022e-001
433.0000	8.66882e-001
434.0000	8.59549e-001
435.0000	8.80069e-001
436.0000	8.53496e-001
437.0000	8.73660e-001
438.0000	8.68292e-001
439.0000	8.85191e-001
440.0000	8.61831e-001
441.0000	9.09476e-001
442.0000	8.72390e-001
443.0000	9.06369e-001
444.0000	8.82266e-001
445.0000	8.73831e-001
446.0000	8.84737e-001
447.0000	8.93455e-001
448.0000	8.78720e-001
449.0000	8.92127e-001
450.0000	8.68244e-001
451.0000	8.71913e-001
452.0000	8.85759e-001
453.0000	9.00489e-001
454.0000	8.98619e-001
455.0000	8.99535e-001
456.0000	8.89139e-001
457.0000	8.80743e-001
458.0000	8.82476e-001
459.0000	8.83933e-001
460.0000	8.86404e-001
461.0000	8.80108e-001
462.0000	8.90050e-001
463.0000	8.75667e-001
464.0000	8.88551e-001
465.0000	8.94127e-001
466.0000	8.77235e-001
467.0000	9.07687e-001
468.0000	8.99050e-001
469.0000	8.88207e-001
470.0000	8.85890e-001
471.0000	9.03429e-001
472.0000	9.00566e-001
473.0000	8.96046e-001
474.0000	8.78934e-001
475.0000	8.92794e-001
476.0000	9.06375e-001
477.0000	8.93211e-001
478.0000	9.01239e-001
479.0000	8.97334e-001
480.0000	8.88613e-001
481.0000	9.07674e-001
482.0000	8.92221e-001
483.0000	9.15747e-001
484.0000	9.07496e-001
485.0000	8.88512e-001
486.0000	8.96725e-001
487.0000	9.05615e-001
488.0000	9.03815e-001
489.0000	8.92577e-001
490.0000	8.94884e-001
491.0000	9.00021e-001
492.0000	9.04188e-001
493.0000	9.03064e-001
494.0000	9.03179e-001
495.0000	9.02155e-001
496.0000	9.07667e-001
497.0000	8.97049e-001
498.0000	9.12974e-001
499.0000	9.01575e-001
500.0000	9.04925e-001
501.0000	9.01003e-001
502.0000	9.11305e-001
503.0000	9.05514e-001
504.0000	9.07226e-001
505.0000	9.04673e-001
506.0000	9.00016e-001
507.0000	9.07549e-001
508.0000	9.16411e-001
509.0000	9.08375e-001
510.0000	9.14170e-001
511.0000	9.01028e-001
512.0000	9.03204e-001
513.0000	9.09547e-001
514.0000	9.04852e-001
515.0000	9.09673e-001
516.0000	9.12718e-001
517.0000	9.07671e-001
518.0000	9.02525e-001
519.0000	9.03087e-001
520.0000	9.08792e-001
521.0000	9.09313e-001
522.0000	9.07611e-001
523.0000	9.09346e-001
524.0000	9.11085e-001
525.0000	8.99244e-001
526.0000	9.15346e-001
527.0000	9.16710e-001
528.0000	9.06360e-001
529.0000	9.13240e-001
530.0000	9.01716e-001
531.0000	9.08388e-001
532.0000	9.11456e-001
533.0000	9.05405e-001
534.0000	9.10528e-001
535.0000	9.10947e-001
536.0000	9.13179e-001
537.0000	9.14597e-001
538.0000	9.12631e-001
539.0000	9.14729e-001
540.0000	9.12924e-001
541.0000	9.14040e-001
542.0000	9.23978e-001
543.0000	9.16864e-001
544.0000	9.15946e-001
545.0000	9.25560e-001
546.0000	9.15335e-001
547.0000	9.15732e-001
548.0000	9.14387e-001
549.0000	9.16674e-001
550.0000	9.12980e-001
551.0000	9.20346e-001
552.0000	9.21429e-001
553.0000	9.19186e-001
554.0000	9.15427e-001
555.0000	9.11377e-001
556.0000	9.22002e-001
557.0000	9.17861e-001
558.0000	9.18781e-001
559.0000	9.22102e-001
560.0000	9.20724e-001
561.0000	9.27410e-001
562.0000	9.28503e-001
563.0000	9.18018e-001
564.0000	9.15622e-001
565.0000	9.17943e-001
566.0000	9.24516e-001
567.0000	9.16356e-001
568.0000	9.22139e-001
569.0000	9.24034e-001
570.0000	9.21824e-001
571.0000	9.27556e-001
572.0000	9.24304e-001
573.0000	9.22063e-001
574.0000	9.20867e-001
575.0000	9.20820e-001
576.0000	9.17875e-001
577.0000	9.19442e-001
578.0000	9.21866e-001
579.0000	9.20201e-001
580.0000	9.29173e-001
581.0000	9.24070e-001
582.0000	9.25303e-001
583.0000	9.27457e-001
584.0000	9.24240e-001
585.0000	9.29757e-001
586.0000	9.22821e-001
587.0000	9.25349e-001
588.0000	9.25719e-001
589.0000	9.25284e-001
590.0000	9.24514e-001
591.0000	9.27967e-001
592.0000	9.24734e-001
593.0000	9.28010e-001
594.0000	9.23722e-001
595.0000	9.34550e-001
596.0000	9.27292e-001
597.0000	9.28527e-001
598.0000	9.32211e-001
599.0000	9.26531e-001
600.0000	9.32248e-001
601.0000	9.34271e-001
602.0000	9.28287e-001
603.0000	9.30194e-001
604.0000	9.31984e-001
605.0000	9.28644e-001
606.0000	9.32759e-001
607.0000	9.29367e-001
608.0000	9.34904e-001
609.0000	9.29265e-001
610.0000	9.32684e-001
611.0000	9.28546e-001
612.0000	9.33971e-001
613.0000	9.31151e-001
614.0000	9.30292e-001
615.0000	9.32784e-001
616.0000	9.27474e-001
617.0000	9.32618e-001
618.0000	9.32193e-001
619.0000	9.33477e-001
620.0000	9.34059e-001
621.0000	9.28222e-001
622.0000	9.34630e-001
623.0000	9.31010e-001
624.0000	9.30932e-001
625.0000	9.32134e-001
626.0000	9.35603e-001
627.0000	9.33331e-001
628.0000	9.33495e-001
629.0000	9.32965e-001
630.0000	9.36685e-001
631.0000	9.31667e-001
632.0000	9.31402e-001
633.0000	9.31214e-001
634.0000	9.32306e-001
635.0000	9.33819e-001
636.0000	9.30565e-001
637.0000	9.31460e-001
638.0000	9.35870e-001
639.0000	9.27418e-001
640.0000	9.33965e-001
641.0000	9.38892e-001
642.0000	9.34869e-001
643.0000	9.33078e-001
644.0000	9.37084e-001
645.0000	9.35809e-001
646.0000	9.36141e-001
647.0000	9.35497e-001
648.0000	9.33617e-001
649.0000	9.29031e-001
650.0000	9.37043e-001
651.0000	9.35324e-001
652.0000	9.33381e-001
653.0000	9.34058e-001
654.0000	9.34069e-001
655.0000	9.34844e-001
656.0000	9.32243e-001
657.0000	9.38697e-001
658.0000	9.36375e-001
659.0000	9.36839e-001
660.0000	9.31742e-001
661.0000	9.31291e-001
662.0000	9.35562e-001
663.0000	9.38684e-001
664.0000	9.37360e-001
665.0000	9.35799e-001
666.0000	9.35394e-001
667.0000	9.35385e-001
668.0000	9.37916e-001
669.0000	9.35995e-001
670.0000	9.34414e-001
671.0000	9.38850e-001
672.0000	9.37474e-001
673.0000	9.34847e-001
674.0000	9.35402e-001
675.0000	9.35473e-001
676.0000	9.36420e-001
677.0000	9.34815e-001
678.0000	9.29197e-001
679.0000	9.34297e-001
680.0000	9.33004e-001
681.0000	9.33073e-001
682.0000	9.36158e-001
683.0000	9.32191e-001
684.0000	9.36278e-001
685.0000	9.33915e-001
686.0000	9.36222e-001
687.0000	9.36137e-001
688.0000	9.33432e-001
689.0000	9.37760e-001
690.0000	9.33645e-001
691.0000	9.36201e-001
692.0000	9.36840e-001
693.0000	9.35866e-001
694.0000	9.35066e-001
695.0000	9.36083e-001
696.0000	9.33165e-001
697.0000	9.35734e-001
698.0000	9.31729e-001
699.0000	9.38634e-001
700.0000	9.35557e-001
701.0000	9.34840e-001
702.0000	9.33595e-001
703.0000	9.32930e-001
704.0000	9.33312e-001
705.0000	9.32063e-001
706.0000	9.34346e-001
707.0000	9.33146e-001
708.0000	9.35886e-001
709.0000	9.34133e-001
710.0000	9.32774e-001
711.0000	9.32956e-001
712.0000	9.38909e-001
713.0000	9.33054e-001
714.0000	9.32627e-001
715.0000	9.33452e-001
716.0000	9.33132e-001
717.0000	9.36120e-001
718.0000	9.33458e-001
719.0000	9.37252e-001
720.0000	9.34244e-001
721.0000	9.33306e-001
722.0000	9.38352e-001
723.0000	9.34552e-001
724.0000	9.33336e-001
725.0000	9.34248e-001
726.0000	9.31281e-001
727.0000	9.33684e-001
728.0000	9.36118e-001
729.0000	9.33360e-001
730.0000	9.36744e-001
731.0000	9.32781e-001
732.0000	9.38137e-001
733.0000	9.30470e-001
734.0000	9.30826e-001
735.0000	9.34148e-001
736.0000	9.32371e-001
737.0000	9.35666e-001
738.0000	9.34105e-001
739.0000	9.35851e-001
740.0000	9.33995e-001
741.0000	9.37033e-001
742.0000	9.34983e-001
743.0000	9.33743e-001
744.0000	9.35040e-001
745.0000	9.31668e-001
746.0000	9.32883e-001
747.0000	9.30561e-001
748.0000	9.31888e-001
749.0000	9.34333e-001
750.0000	9.37116e-001
751.0000	9.33780e-001
752.0000	9.34803e-001
753.0000	9.34129e-001
754.0000	9.32455e-001
755.0000	9.28814e-001
756.0000	9.36143e-001
757.0000	9.30761e-001
758.0000	9.30149e-001
759.0000	9.30415e-001
760.0000	9.32790e-001
761.0000	9.30687e-001
762.0000	9.29153e-001
763.0000	9.29955e-001
764.0000	9.30665e-001
765.0000	9.31351e-001
766.0000	9.30226e-001
767.0000	9.31893e-001
768.0000	9.29497e-001
769.0000	9.35252e-001
770.0000	9.34555e-001
771.0000	9.33644e-001
772.0000	9.31343e-001
773.0000	9.34504e-001
774.0000	9.30467e-001
775.0000	9.30601e-001
776.0000	9.33295e-001
777.0000	9.31807e-001
778.0000	9.30977e-001
779.0000	9.32792e-001
780.0000	9.31571e-001
781.0000	9.31972e-001
782.0000	9.30316e-001
783.0000	9.33149e-001
784.0000	9.29414e-001
785.0000	9.33635e-001
786.0000	9.32573e-001
787.0000	9.31493e-001
788.0000	9.32001e-001
789.0000	9.31697e-001
790.0000	9.31234e-001
791.0000	9.29447e-001
792.0000	9.31441e-001
793.0000	9.28872e-001
794.0000	9.29492e-001
795.0000	9.31148e-001
796.0000	9.31190e-001
797.0000	9.27920e-001
798.0000	9.33102e-001
799.0000	9.28261e-001
800.0000	9.29107e-001
801.0000	9.29895e-001
802.0000	9.30990e-001
803.0000	9.26798e-001
804.0000	9.30966e-001
805.0000	9.34381e-001
806.0000	9.31973e-001
807.0000	9.32764e-001
808.0000	9.26555e-001
809.0000	9.30669e-001
810.0000	9.31666e-001
811.0000	9.32463e-001
812.0000	9.30947e-001
813.0000	9.29927e-001
814.0000	9.31914e-001
815.0000	9.28106e-001
816.0000	9.26984e-001
817.0000	9.29916e-001
818.0000	9.31095e-001
819.0000	9.33969e-001
820.0000	9.30772e-001
821.0000	9.31319e-001
822.0000	9.26700e-001
823.0000	9.29806e-001
824.0000	9.27800e-001
825.0000	9.24898e-001
826.0000	9.32134e-001
827.0000	9.26804e-001
828.0000	9.26330e-001
829.0000	9.29557e-001
830.0000	9.29248e-001
831.0000	9.33351e-001
832.0000	9.29096e-001
833.0000	9.26772e-001
834.0000	9.29150e-001
835.0000	9.28172e-001
836.0000	9.28283e-001
837.0000	9.29808e-001
838.0000	9.27367e-001
839.0000	9.30025e-001
840.0000	9.26497e-001
841.0000	9.26757e-001
842.0000	9.24109e-001
843.0000	9.26976e-001
844.0000	9.26100e-001
845.0000	9.26595e-001
846.0000	9.28805e-001
847.0000	9.26762e-001
848.0000	9.27315e-001
849.0000	9.26499e-001
850.0000	9.26927e-001
851.0000	9.26832e-001
852.0000	9.27208e-001
853.0000	9.28945e-001
854.0000	9.28193e-001
855.0000	9.28375e-001
856.0000	9.28162e-001
857.0000	9.27646e-001
858.0000	9.24578e-001
859.0000	9.27768e-001
860.0000	9.27620e-001
861.0000	9.28489e-001
862.0000	9.26318e-001
863.0000	9.23983e-001
864.0000	9.26831e-001
865.0000	9.24605e-001
866.0000	9.30690e-001
867.0000	9.24815e-001
868.0000	9.25435e-001
869.0000	9.26060e-001
870.0000	9.25026e-001
871.0000	9.23452e-001
872.0000	9.25510e-001
873.0000	9.27680e-001
874.0000	9.23471e-001
875.0000	9.27804e-001
876.0000	9.26780e-001
877.0000	9.27673e-001
878.0000	9.24191e-001
879.0000	9.24558e-001
880.0000	9.22882e-001
881.0000	9.25136e-001
882.0000	9.22431e-001
883.0000	9.25647e-001
884.0000	9.24928e-001
885.0000	9.27637e-001
886.0000	9.21099e-001
887.0000	9.25938e-001
888.0000	9.22733e-001
889.0000	9.26496e-001
890.0000	9.20477e-001
891.0000	9.23430e-001
892.0000	9.23628e-001
893.0000	9.29147e-001
894.0000	9.22233e-001
895.0000	9.26597e-001
896.0000	9.25000e-001
897.0000	9.25311e-001
898.0000	9.23272e-001
899.0000	9.25823e-001
900.0000	9.23622e-001
901.0000	9.25076e-001
902.0000	9.25510e-001
903.0000	9.22401e-001
904.0000	9.23203e-001
905.0000	9.21695e-001
906.0000	9.20786e-001
907.0000	9.23579e-001
908.0000	9.22069e-001
909.0000	9.26111e-001
910.0000	9.24824e-001
911.0000	9.21933e-001
912.0000	9.22946e-001
913.0000	9.22281e-001
914.0000	9.20257e-001
915.0000	9.24318e-001
916.0000	9.20198e-001
917.0000	9.24281e-001
918.0000	9.25327e-001
919.0000	9.23846e-001
920.0000	9.22089e-001
921.0000	9.21515e-001
922.0000	9.23373e-001
923.0000	9.20890e-001
924.0000	9.19868e-001
925.0000	9.22640e-001
926.0000	9.23459e-001
927.0000	9.20514e-001
928.0000	9.19367e-001
929.0000	9.20789e-001
930.0000	9.20037e-001
931.0000	9.19196e-001
932.0000	9.22909e-001
933.0000	9.21864e-001
934.0000	9.21968e-001
935.0000	9.21616e-001
936.0000	9.25044e-001
937.0000	9.23440e-001
938.0000	9.20142e-001
939.0000	9.21312e-001
940.0000	9.19049e-001
941.0000	9.21582e-001
942.0000	9.22762e-001
943.0000	9.14541e-001
944.0000	9.23275e-001
945.0000	9.22322e-001
946.0000	9.24436e-001
947.0000	9.23986e-001
948.0000	9.22010e-001
949.0000	9.21061e-001
950.0000	9.21159e-001
951.0000	9.15024e-001
952.0000	9.17736e-001
953.0000	9.19647e-001
954.0000	9.19672e-001
955.0000	9.23426e-001
956.0000	9.17116e-001
957.0000	9.22319e-001
958.0000	9.24456e-001
959.0000	9.23333e-001
960.0000	9.20808e-001
961.0000	9.18397e-001
962.0000	9.16591e-001
963.0000	9.18208e-001
964.0000	9.16146e-001
965.0000	9.16998e-001
966.0000	9.21846e-001
967.0000	9.10474e-001
968.0000	9.21681e-001
969.0000	9.22022e-001
970.0000	9.19669e-001
971.0000	9.19205e-001
972.0000	9.20885e-001
973.0000	9.17166e-001
974.0000	9.17600e-001
975.0000	9.19433e-001
976.0000	9.17836e-001
977.0000	9.17853e-001
978.0000	9.13982e-001
979.0000	9.20144e-001
980.0000	9.15371e-001
981.0000	9.23442e-001
982.0000	9.19381e-001
983.0000	9.20965e-001
984.0000	9.13625e-001
985.0000	9.15773e-001
986.0000	9.21890e-001
987.0000	9.16095e-001
988.0000	9.18828e-001
989.0000	9.18822e-001
990.0000	9.15505e-001
991.0000	9.11789e-001
992.0000	9.20523e-001
993.0000	9.16438e-001
994.0000	9.12292e-001
995.0000	9.14507e-001
996.0000	9.16130e-001
997.0000	9.18561e-001
998.0000	9.18426e-001
999.0000	9.10949e-001
1000.0000	9.15462e-001
1001.0000	9.14585e-001
1002.0000	9.21658e-001
1003.0000	9.14972e-001
1004.0000	9.14139e-001
1005.0000	9.17941e-001
1006.0000	9.11709e-001
1007.0000	9.19839e-001
1008.0000	9.13888e-001
1009.0000	9.14326e-001
1010.0000	9.14129e-001
1011.0000	9.11538e-001
1012.0000	9.17813e-001
1013.0000	9.17464e-001
1014.0000	9.16264e-001
1015.0000	9.21465e-001
1016.0000	9.14415e-001
1017.0000	9.13953e-001
1018.0000	9.14283e-001
1019.0000	9.15447e-001
1020.0000	9.07922e-001
1021.0000	9.19699e-001
1022.0000	9.13382e-001
1023.0000	9.14827e-001
1024.0000	9.12224e-001
1025.0000	9.12254e-001
1026.0000	9.20480e-001
1027.0000	9.14315e-001
1028.0000	9.16791e-001
1029.0000	9.08981e-001
1030.0000	9.13200e-001
1031.0000	9.09180e-001
1032.0000	9.14785e-001
1033.0000	9.10871e-001
1034.0000	9.11596e-001
1035.0000	9.09513e-001
1036.0000	9.17492e-001
1037.0000	9.08234e-001
1038.0000	9.15032e-001
1039.0000	9.18479e-001
1040.0000	9.04131e-001
1041.0000	9.19032e-001
1042.0000	9.15432e-001
1043.0000	9.15727e-001
1044.0000	9.13762e-001
1045.0000	9.20542e-001
1046.0000	9.12189e-001
1047.0000	9.05588e-001
1048.0000	9.11188e-001
1049.0000	9.06022e-001
1050.0000	9.07106e-001
1051.0000	9.09682e-001
1052.0000	9.08063e-001
1053.0000	9.14873e-001
1054.0000	9.08328e-001
1055.0000	9.19650e-001
1056.0000	9.16835e-001
1057.0000	9.10516e-001
1058.0000	9.18864e-001
1059.0000	9.15249e-001
1060.0000	9.11471e-001
1061.0000	9.10998e-001
1062.0000	9.04453e-001
1063.0000	9.09400e-001
1064.0000	9.08575e-001
1065.0000	9.07425e-001
1066.0000	9.02806e-001
1067.0000	9.14348e-001
1068.0000	9.07123e-001
1069.0000	8.98382e-001
1070.0000	9.14467e-001
1071.0000	9.18839e-001
1072.0000	9.00474e-001
1073.0000	9.06971e-001
1074.0000	9.16620e-001
1075.0000	9.13615e-001
1076.0000	9.16191e-001
1077.0000	9.14188e-001
1078.0000	9.11303e-001
1079.0000	9.13065e-001
1080.0000	8.98466e-001
1081.0000	9.22516e-001
1082.0000	8.97419e-001
1083.0000	9.17230e-001
1084.0000	9.17656e-001
1085.0000	9.13493e-001
1086.0000	9.13905e-001
1087.0000	8.94131e-001
1088.0000	9.16910e-001
1089.0000	9.06587e-001
1090.0000	9.04976e-001
1091.0000	9.15458e-001
1092.0000	9.02199e-001
1093.0000	9.23263e-001
1094.0000	9.06033e-001
1095.0000	9.13542e-001
1096.0000	9.11921e-001
1097.0000	8.94404e-001
1098.0000	9.01225e-001
1099.0000	8.81274e-001
1100.0000	8.98496e-001
<EndData>

<NDFilter>
<No Filter>
<Version>
3.3
<Lamp Source1>
Internal
<Pulse Width>
0.000000
<Chiller>
0.000000
